2-THETA,INTENSITY
2,4983
2.05,7420
2.1,5660
2.15,6533
2.2,5899
2.25,5183
2.3,6502
2.35,4227
2.4,5780
2.45,5489
2.5,4448
2.55,5151
2.6,4293
2.65,4911
2.7,4418
2.75,4160
2.8,4148
2.85,3887
2.9,3795
2.95,3877
3,3524
3.05,3499
3.1,3297
3.15,3088
3.2,3444
3.25,2673
3.3,3258
3.35,2931
3.4,2865
3.45,3030
3.5,2441
3.55,2863
3.6,2394
3.65,2686
3.7,2646
3.75,2226
3.8,2406
3.85,2256
3.9,2398
3.95,2434
4,1954
4.05,2360
4.1,1913
4.15,2165
4.2,1979
4.25,1970
4.3,1925
4.35,1742
4.4,1886
4.45,1880
4.5,1795
4.55,1791
4.6,1642
4.65,1747
4.7,1663
4.75,1591
4.8,1451
4.85,1570
4.9,1525
4.95,1556
5,1551
5.05,1484
5.1,1482
5.15,1443
5.2,1456
5.25,1362
5.3,1345
5.35,1326
5.4,1392
5.45,1226
5.5,1314
5.55,1315
5.6,1221
5.65,1254
5.7,1255
5.75,1215
5.8,1159
5.85,1245
5.9,1154
5.95,1154
6,1117
6.05,1056
6.1,1111
6.15,1100
6.2,1009
6.25,1051
6.3,1034
6.35,1021
6.4,999
6.45,908
6.5,973
6.55,997
6.6,983
6.65,945
6.7,924
6.75,890
6.8,917
6.85,951
6.9,873
6.95,820
7,812
7.05,836
7.1,836
7.15,875
7.2,830
7.25,910
7.3,807
7.35,774
7.4,775
7.45,806
7.5,768
7.55,786
7.6,792
7.65,798
7.7,774
7.75,703
7.8,769
7.85,777
7.9,706
7.95,738
8,734
8.05,703
8.1,705
8.15,699
8.2,681
8.25,688
8.3,718
8.35,691
8.4,651
8.45,656
8.5,696
8.55,660
8.6,685
8.65,680
8.7,662
8.75,651
8.8,640
8.85,644
8.9,669
8.95,655
9,634
9.05,665
9.1,626
9.15,655
9.2,628
9.25,608
9.3,607
9.35,611
9.4,572
9.45,566
9.5,612
9.55,577
9.6,599
9.65,630
9.7,578
9.75,591
9.8,602
9.85,620
9.9,626
9.95,598
10,570
10.05,595
10.1,574
10.15,531
10.2,554
10.25,556
10.3,550
10.35,571
10.4,560
10.45,528
10.5,571
10.55,506
10.6,542
10.65,524
10.7,544
10.75,534
10.8,551
10.85,530
10.9,521
10.95,522
11,564
11.05,517
11.1,508
11.15,532
11.2,522
11.25,508
11.3,489
11.35,482
11.4,542
11.45,518
11.5,478
11.55,502
11.6,502
11.65,480
11.7,483
11.75,505
11.8,507
11.85,497
11.9,479
11.95,521
12,508
12.05,493
12.1,487
12.15,485
12.2,499
12.25,456
12.3,488
12.35,505
12.4,494
12.45,458
12.5,473
12.55,485
12.6,503
12.65,472
12.7,457
12.75,475
12.8,470
12.85,505
12.9,490
12.95,473
13,460
13.05,462
13.1,456
13.15,460
13.2,487
13.25,461
13.3,507
13.35,477
13.4,471
13.45,472
13.5,493
13.55,502
13.6,482
13.65,475
13.7,455
13.75,506
13.8,434
13.85,457
13.9,463
13.95,475
14,463
14.05,456
14.1,476
14.15,478
14.2,501
14.25,452
14.3,490
14.35,458
14.4,460
14.45,511
14.5,473
14.55,485
14.6,527
14.65,511
14.7,496
14.75,500
14.8,503
14.85,509
14.9,500
14.95,497
15,504
15.05,475
15.1,467
15.15,501
15.2,473
15.25,477
15.3,470
15.35,474
15.4,479
15.45,452
15.5,501
15.55,493
15.6,483
15.65,504
15.7,514
15.75,513
15.8,571
15.85,566
15.9,573
15.95,629
16,628
16.05,590
16.1,615
16.15,610
16.2,592
16.25,565
16.3,521
16.35,549
16.4,548
16.45,548
16.5,540
16.55,515
16.6,551
16.65,533
16.7,538
16.75,507
16.8,541
16.85,563
16.9,628
16.95,726
17,725
17.05,768
17.1,762
17.15,729
17.2,695
17.25,633
17.3,599
17.35,611
17.4,606
17.45,609
17.5,577
17.55,603
17.6,593
17.65,595
17.7,595
17.75,568
17.8,580
17.85,531
17.9,561
17.95,559
18,599
18.05,625
18.1,586
18.15,618
18.2,620
18.25,626
18.3,626
18.35,608
18.4,645
18.45,667
18.5,636
18.55,672
18.6,677
18.65,646
18.7,655
18.75,687
18.8,674
18.85,702
18.9,696
18.95,698
19,677
19.05,671
19.1,709
19.15,657
19.2,686
19.25,655
19.3,640
19.35,634
19.4,659
19.45,655
19.5,641
19.55,661
19.6,660
19.65,653
19.7,646
19.75,668
19.8,634
19.85,667
19.9,689
19.95,663
20,666
20.05,665
20.1,686
20.15,684
20.2,678
20.25,691
20.3,690
20.35,712
20.4,688
20.45,674
20.5,722
20.55,686
20.6,686
20.65,668
20.7,634
20.75,692
20.8,700
20.85,691
20.9,678
20.95,704
21,696
21.05,718
21.1,737
21.15,791
21.2,847
21.25,922
21.3,953
21.35,894
21.4,847
21.45,814
21.5,708
21.55,709
21.6,713
21.65,742
21.7,738
21.75,721
21.8,735
21.85,743
21.9,765
21.95,748
22,759
22.05,818
22.1,765
22.15,787
22.2,752
22.25,747
22.3,767
22.35,787
22.4,773
22.45,761
22.5,785
22.55,757
22.6,795
22.65,771
22.7,758
22.75,777
22.8,798
22.85,820
22.9,782
22.95,805
23,805
23.05,831
23.1,840
23.15,836
23.2,861
23.25,820
23.3,847
23.35,857
23.4,898
23.45,816
23.5,837
23.55,830
23.6,853
23.65,845
23.7,854
23.75,838
23.8,858
23.85,876
23.9,875
23.95,928
24,929
24.05,892
24.1,933
24.15,939
24.2,980
24.25,957
24.3,987
24.35,976
24.4,935
24.45,924
24.5,935
24.55,930
24.6,920
24.65,947
24.7,923
24.75,949
24.8,962
24.85,948
24.9,923
24.95,937
25,950
25.05,917
25.1,979
25.15,941
25.2,950
25.25,1009
25.3,1059
25.35,1109
25.4,1218
25.45,1407
25.5,1587
25.55,1740
25.6,1791
25.65,1832
25.7,1637
25.75,1455
25.8,1321
25.85,1163
25.9,1079
25.95,1066
26,1021
26.05,1001
26.1,988
26.15,987
26.2,1018
26.25,983
26.3,978
26.35,1042
26.4,1028
26.45,1050
26.5,1087
26.55,1141
26.6,1174
26.65,1149
26.7,1114
26.75,1129
26.8,1094
26.85,1049
26.9,1034
26.95,1003
27,985
27.05,939
27.1,952
27.15,934
27.2,948
27.25,972
27.3,991
27.35,1082
27.4,1152
27.45,1208
27.5,1309
27.55,1394
27.6,1391
27.65,1336
27.7,1276
27.75,1197
27.8,1194
27.85,1176
27.9,1186
27.95,1174
28,1210
28.05,1205
28.1,1160
28.15,1107
28.2,1094
28.25,1087
28.3,1090
28.35,1123
28.4,1106
28.45,1142
28.5,1068
28.55,1041
28.6,1004
28.65,953
28.7,972
28.75,927
28.8,889
28.85,907
28.9,927
28.95,914
29,909
29.05,950
29.1,961
29.15,1023
29.2,1061
29.25,1117
29.3,1223
29.35,1317
29.4,1578
29.45,1867
29.5,2151
29.55,2539
29.6,2654
29.65,2655
29.7,2326
29.75,2067
29.8,1779
29.85,1564
29.9,1340
29.95,1239
30,1155
30.05,1048
30.1,986
30.15,956
30.2,945
30.25,952
30.3,871
30.35,868
30.4,889
30.45,846
30.5,858
30.55,861
30.6,919
30.65,938
30.7,945
30.75,969
30.8,989
30.85,1027
30.9,1114
30.95,1142
31,1171
31.05,1208
31.1,1163
31.15,1072
31.2,992
31.25,926
31.3,859
31.35,833
31.4,861
31.45,849
31.5,810
31.55,813
31.6,813
31.65,809
31.7,807
31.75,859
31.8,834
31.85,889
31.9,912
31.95,968
32,1070
32.05,1174
32.1,1306
32.15,1498
32.2,1731
32.25,1998
32.3,2190
32.35,2344
32.4,2429
32.45,2455
32.5,2431
32.55,2385
32.6,2271
32.65,2085
32.7,1916
32.75,1683
32.8,1472
32.85,1237
32.9,1135
32.95,1082
33,1066
33.05,1084
33.1,1065
33.15,995
33.2,976
33.25,915
33.3,824
33.35,785
33.4,763
33.45,708
33.5,708
33.55,698
33.6,696
33.65,682
33.7,686
33.75,686
33.8,675
33.85,713
33.9,675
33.95,679
34,678
34.05,678
34.1,683
34.15,694
34.2,713
34.25,717
34.3,780
34.35,788
34.4,878
34.45,927
34.5,1060
34.55,1031
34.6,1049
34.65,1070
34.7,1029
34.75,1015
34.8,954
34.85,929
34.9,998
34.95,1085
35,1216
35.05,1340
35.1,1463
35.15,1442
35.2,1472
35.25,1339
35.3,1189
35.35,1063
35.4,1006
35.45,960
35.5,913
35.55,927
35.6,890
35.65,836
35.7,853
35.75,830
35.8,838
35.85,862
35.9,850
35.95,904
36,917
36.05,913
36.1,917
36.15,921
36.2,877
36.25,854
36.3,857
36.35,874
36.4,944
36.45,1020
36.5,1088
36.55,1180
36.6,1277
36.65,1258
36.7,1192
36.75,1112
36.8,988
36.85,890
36.9,840
36.95,786
37,752
37.05,760
37.1,759
37.15,776
37.2,787
37.25,807
37.3,821
37.35,854
37.4,838
37.45,812
37.5,762
37.55,753
37.6,692
37.65,602
37.7,616
37.75,628
37.8,616
37.85,605
37.9,617
37.95,618
38,604
38.05,653
38.1,645
38.15,646
38.2,662
38.25,697
38.3,797
38.35,813
38.4,909
38.45,959
38.5,1011
38.55,1014
38.6,940
38.65,852
38.7,784
38.75,705
38.8,637
38.85,629
38.9,594
38.95,575
39,559
39.05,564
39.1,562
39.15,581
39.2,555
39.25,594
39.3,599
39.35,624
39.4,602
39.45,587
39.5,578
39.55,545
39.6,560
39.65,530
39.7,519
39.75,540
39.8,543
39.85,525
39.9,536
39.95,519
40,530
40.05,506
40.1,539
40.15,537
40.2,565
40.25,547
40.3,509
40.35,556
40.4,585
40.45,594
40.5,577
40.55,618
40.6,633
40.65,673
40.7,697
40.75,677
40.8,684
40.85,727
40.9,690
40.95,692
41,752
41.05,806
41.1,859
41.15,1000
41.2,1190
41.25,1559
41.3,2094
41.35,2642
41.4,2965
41.45,3158
41.5,2984
41.55,2685
41.6,2280
41.65,1880
41.7,1485
41.75,1305
41.8,1081
41.85,1007
41.9,920
41.95,793
42,761
42.05,719
42.1,704
42.15,713
42.2,736
42.25,705
42.3,752
42.35,733
42.4,731
42.45,696
42.5,676
42.55,696
42.6,641
42.65,653
42.7,649
42.75,615
42.8,639
42.85,621
42.9,593
42.95,598
43,588
43.05,570
43.1,547
43.15,541
43.2,555
43.25,563
43.3,592
43.35,611
43.4,587
43.45,579
43.5,594
43.55,586
43.6,586
43.65,566
43.7,572
43.75,537
43.8,527
43.85,542
43.9,555
43.95,534
44,543
44.05,565
44.1,571
44.15,550
44.2,532
44.25,558
44.3,525
44.35,526
44.4,530
44.45,521
44.5,506
44.55,539
44.6,511
44.65,548
44.7,549
44.75,555
44.8,559
44.85,571
44.9,598
44.95,588
45,658
45.05,642
45.1,706
45.15,741
45.2,750
45.25,793
45.3,740
45.35,715
45.4,711
45.45,651
45.5,631
45.55,619
45.6,590
45.65,570
45.7,601
45.75,609
45.8,592
45.85,600
45.9,596
45.95,616
46,635
46.05,614
46.1,611
46.15,587
46.2,598
46.25,570
46.3,573
46.35,559
46.4,539
46.45,550
46.5,566
46.55,540
46.6,520
46.65,519
46.7,539
46.75,538
46.8,553
46.85,530
46.9,536
46.95,525
47,520
47.05,538
47.1,555
47.15,546
47.2,573
47.25,558
47.3,592
47.35,618
47.4,645
47.45,674
47.5,650
47.55,752
47.6,792
47.65,863
47.7,854
47.75,829
47.8,852
47.85,814
47.9,766
47.95,764
48,681
48.05,655
48.1,665
48.15,634
48.2,661
48.25,660
48.3,643
48.35,612
48.4,621
48.45,625
48.5,623
48.55,584
48.6,593
48.65,569
48.7,583
48.75,572
48.8,581
48.85,580
48.9,595
48.95,603
49,582
49.05,568
49.1,609
49.15,564
49.2,570
49.25,623
49.3,647
49.35,657
49.4,673
49.45,695
49.5,643
49.55,720
49.6,668
49.65,676
49.7,647
49.75,645
49.8,675
49.85,658
49.9,682
49.95,667
50,649
50.05,690
50.1,627
50.15,618
50.2,614
50.25,654
50.3,728
50.35,802
50.4,940
50.45,1004
50.5,1119
50.55,1093
50.6,1030
50.65,954
50.7,940
50.75,861
50.8,714
50.85,714
50.9,653
50.95,641
51,578
51.05,596
51.1,547
51.15,545
51.2,537
51.25,539
51.3,551
51.35,531
51.4,559
51.45,500
51.5,538
51.55,551
51.6,540
51.65,522
51.7,524
51.75,546
51.8,528
51.85,530
51.9,501
51.95,734
52,670
