#2-THETA,#INTENSITY
2,11921
2.05,17418
2.1,12756
2.15,16207
2.2,17300
2.25,12266
2.3,15815
2.35,10498
2.4,14101
2.45,12178
2.5,11434
2.55,12474
2.6,10560
2.65,11046
2.7,11726
2.75,8843
2.8,10175
2.85,9376
2.9,7956
2.95,8301
3,7951
3.05,8418
3.1,7154
3.15,6882
3.2,6951
3.25,6329
3.3,6765
3.35,6100
3.4,5462
3.45,5969
3.5,4555
3.55,5637
3.6,4305
3.65,5439
3.7,5217
3.75,3952
3.8,4188
3.85,3590
3.9,4320
3.95,4245
4,3440
4.05,4083
4.1,3313
4.15,3704
4.2,3431
4.25,3017
4.3,3245
4.35,2777
4.4,3245
4.45,2863
4.5,2802
4.55,2758
4.6,2568
4.65,2597
4.7,2349
4.75,2240
4.8,2257
4.85,2384
4.9,2392
4.95,2181
5,2427
5.05,2276
5.1,2203
5.15,1926
5.2,2039
5.25,1917
5.3,1968
5.35,1825
5.4,1876
5.45,1852
5.5,1832
5.55,1790
5.6,1792
5.65,1860
5.7,1719
5.75,1860
5.8,1832
5.85,1760
5.9,1837
5.95,1698
6,1781
6.05,1618
6.1,1775
6.15,1753
6.2,1769
6.25,1797
6.3,1793
6.35,1838
6.4,1766
6.45,1815
6.5,1848
6.55,1815
6.6,1785
6.65,1719
6.7,1590
6.75,1755
6.8,1519
6.85,1612
6.9,1465
6.95,1361
7,1292
7.05,1273
7.1,1270
7.15,1301
7.2,1209
7.25,1218
7.3,1177
7.35,1184
7.4,1130
7.45,1139
7.5,1105
7.55,1127
7.6,1123
7.65,1158
7.7,1160
7.75,1082
7.8,1154
7.85,1188
7.9,1057
7.95,1118
8,1125
8.05,1045
8.1,1092
8.15,1025
8.2,1122
8.25,1039
8.3,1015
8.35,1067
8.4,1044
8.45,1043
8.5,1024
8.55,1006
8.6,1050
8.65,1016
8.7,1037
8.75,1014
8.8,1084
8.85,1102
8.9,1073
8.95,1079
9,1078
9.05,1020
9.1,1064
9.15,1053
9.2,1101
9.25,1039
9.3,1133
9.35,1015
9.4,1038
9.45,1078
9.5,1085
9.55,1108
9.6,1017
9.65,1110
9.7,1152
9.75,1172
9.8,1080
9.85,1149
9.9,1138
9.95,1141
10,1123
10.05,1078
10.1,1111
10.15,1152
10.2,1113
10.25,1195
10.3,1058
10.35,1063
10.4,1075
10.45,1079
10.5,1137
10.55,1054
10.6,1017
10.65,964
10.7,982
10.75,937
10.8,898
10.85,891
10.9,861
10.95,893
11,885
11.05,807
11.1,774
11.15,761
11.2,718
11.25,696
11.3,666
11.35,705
11.4,655
11.45,664
11.5,647
11.55,637
11.6,636
11.65,631
11.7,643
11.75,639
11.8,615
11.85,594
11.9,571
11.95,544
12,535
12.05,612
12.1,595
12.15,588
12.2,570
12.25,585
12.3,599
12.35,589
12.4,610
12.45,605
12.5,610
12.55,552
12.6,619
12.65,598
12.7,589
12.75,610
12.8,590
12.85,585
12.9,630
12.95,610
13,632
13.05,583
13.1,576
13.15,604
13.2,601
13.25,584
13.3,630
13.35,608
13.4,593
13.45,619
13.5,657
13.55,661
13.6,675
13.65,635
13.7,652
13.75,587
13.8,578
13.85,575
13.9,533
13.95,603
14,581
14.05,541
14.1,578
14.15,593
14.2,572
14.25,563
14.3,534
14.35,580
14.4,573
14.45,539
14.5,591
14.55,608
14.6,599
14.65,612
14.7,584
14.75,589
14.8,573
14.85,582
14.9,597
14.95,586
15,582
15.05,591
15.1,556
15.15,603
15.2,565
15.25,604
15.3,573
15.35,580
15.4,602
15.45,553
15.5,597
15.55,601
15.6,584
15.65,556
15.7,590
15.75,617
15.8,602
15.85,667
15.9,702
15.95,779
16,730
16.05,806
16.1,704
16.15,733
16.2,713
16.25,675
16.3,657
16.35,659
16.4,655
16.45,638
16.5,636
16.55,654
16.6,635
16.65,641
16.7,700
16.75,693
16.8,594
16.85,666
16.9,687
16.95,711
17,721
17.05,713
17.1,763
17.15,777
17.2,733
17.25,723
17.3,700
17.35,749
17.4,740
17.45,734
17.5,759
17.55,707
17.6,721
17.65,688
17.7,682
17.75,708
17.8,672
17.85,690
17.9,649
17.95,657
18,704
18.05,669
18.1,701
18.15,677
18.2,714
18.25,691
18.3,672
18.35,684
18.4,635
18.45,694
18.5,637
18.55,654
18.6,674
18.65,716
18.7,689
18.75,652
18.8,659
18.85,684
18.9,711
18.95,656
19,684
19.05,626
19.1,667
19.15,685
19.2,661
19.25,661
19.3,654
19.35,658
19.4,653
19.45,712
19.5,695
19.55,665
19.6,693
19.65,733
19.7,703
19.75,714
19.8,674
19.85,751
19.9,718
19.95,713
20,745
20.05,727
20.1,727
20.15,728
20.2,790
20.25,807
20.3,825
20.35,828
20.4,814
20.45,794
20.5,759
20.55,754
20.6,766
20.65,763
20.7,769
20.75,786
20.8,768
20.85,767
20.9,784
20.95,802
21,759
21.05,787
21.1,769
21.15,763
21.2,808
21.25,807
21.3,802
21.35,755
21.4,853
21.45,813
21.5,786
21.55,777
21.6,784
21.65,825
21.7,772
21.75,792
21.8,803
21.85,852
21.9,827
21.95,894
22,829
22.05,873
22.1,876
22.15,850
22.2,843
22.25,882
22.3,866
22.35,912
22.4,918
22.45,987
22.5,1002
22.55,1017
22.6,1074
22.65,1059
22.7,1128
22.75,1163
22.8,1161
22.85,1173
22.9,1208
22.95,1212
23,1239
23.05,1242
23.1,1257
23.15,1214
23.2,1185
23.25,1175
23.3,1180
23.35,1123
23.4,1160
23.45,1132
23.5,1110
23.55,1045
23.6,1088
23.65,1097
23.7,1076
23.75,1109
23.8,1105
23.85,1044
23.9,1076
23.95,1066
24,1132
24.05,1108
24.1,1121
24.15,1130
24.2,1106
24.25,1137
24.3,1111
24.35,1068
24.4,1092
24.45,1054
24.5,1040
24.55,1036
24.6,1063
24.65,1040
24.7,1051
24.75,1029
24.8,1046
24.85,1034
24.9,1050
24.95,1037
25,1050
25.05,1019
25.1,1055
25.15,1035
25.2,1059
25.25,1081
25.3,1104
25.35,1106
25.4,1184
25.45,1296
25.5,1482
25.55,1592
25.6,1667
25.65,1627
25.7,1634
25.75,1521
25.8,1350
25.85,1185
25.9,1103
25.95,1018
26,976
26.05,1022
26.1,966
26.15,1014
26.2,1003
26.25,1010
26.3,997
26.35,1009
26.4,1003
26.45,1010
26.5,1004
26.55,1095
26.6,1059
26.65,1136
26.7,1135
26.75,1126
26.8,1149
26.85,1086
26.9,1088
26.95,1034
27,1035
27.05,992
27.1,976
27.15,978
27.2,995
27.25,972
27.3,1007
27.35,1059
27.4,1112
27.45,1188
27.5,1309
27.55,1340
27.6,1427
27.65,1341
27.7,1360
27.75,1297
27.8,1254
27.85,1235
27.9,1193
27.95,1190
28,1222
28.05,1276
28.1,1288
28.15,1308
28.2,1346
28.25,1358
28.3,1281
28.35,1315
28.4,1354
28.45,1260
28.5,1338
28.55,1197
28.6,1270
28.65,1151
28.7,1140
28.75,1028
28.8,1005
28.85,1007
28.9,947
28.95,1011
29,998
29.05,1011
29.1,1029
29.15,1091
29.2,1123
29.25,1147
29.3,1244
29.35,1276
29.4,1383
29.45,1511
29.5,1717
29.55,1897
29.6,2195
29.65,2291
29.7,2282
29.75,2187
29.8,2093
29.85,1825
29.9,1635
29.95,1435
30,1344
30.05,1235
30.1,1186
30.15,1153
30.2,1112
30.25,1113
30.3,1028
30.35,1010
30.4,1019
30.45,1029
30.5,1000
30.55,1024
30.6,992
30.65,1023
30.7,1052
30.75,1060
30.8,1029
30.85,1066
30.9,1135
30.95,1061
31,1070
31.05,1089
31.1,1077
31.15,1072
31.2,1018
31.25,1075
31.3,1081
31.35,1081
31.4,1073
31.45,1073
31.5,1035
31.55,1004
31.6,973
31.65,974
31.7,997
31.75,1046
31.8,977
31.85,1054
31.9,1113
31.95,1102
32,1128
32.05,1245
32.1,1353
32.15,1464
32.2,1625
32.25,1798
32.3,1955
32.35,2139
32.4,2154
32.45,2137
32.5,2036
32.55,2006
32.6,1939
32.65,1892
32.7,1824
32.75,1626
32.8,1491
32.85,1424
32.9,1313
32.95,1231
33,1197
33.05,1182
33.1,1202
33.15,1128
33.2,1132
33.25,1148
33.3,1072
33.35,1021
33.4,1009
33.45,989
33.5,1002
33.55,974
33.6,969
33.65,948
33.7,980
33.75,1028
33.8,1012
33.85,1079
33.9,1068
33.95,1012
34,952
34.05,949
34.1,885
34.15,878
34.2,858
34.25,820
34.3,849
34.35,878
34.4,896
34.45,951
34.5,971
34.55,996
34.6,1021
34.65,1016
34.7,1034
34.75,951
34.8,985
34.85,985
34.9,961
34.95,979
35,945
35.05,958
35.1,920
35.15,909
35.2,969
35.25,1008
35.3,993
35.35,1015
35.4,1073
35.45,1074
35.5,1061
35.55,951
35.6,997
35.65,976
35.7,945
35.75,946
35.8,941
35.85,939
35.9,940
35.95,932
36,946
36.05,950
36.1,945
36.15,944
36.2,912
36.25,939
36.3,943
36.35,947
36.4,994
36.45,1005
36.5,1085
36.55,1111
36.6,1202
36.65,1222
36.7,1270
36.75,1153
36.8,1151
36.85,1144
36.9,1093
36.95,1030
37,981
37.05,978
37.1,951
37.15,957
37.2,907
37.25,891
37.3,882
37.35,886
37.4,822
37.45,881
37.5,882
37.55,853
37.6,859
37.65,837
37.7,799
37.75,797
37.8,796
37.85,809
37.9,791
37.95,829
38,832
38.05,814
38.1,834
38.15,871
38.2,873
38.25,898
38.3,979
38.35,1001
38.4,1067
38.45,1106
38.5,1266
38.55,1344
38.6,1525
38.65,1589
38.7,1739
38.75,1779
38.8,1706
38.85,1615
38.9,1502
38.95,1294
39,1233
39.05,1089
39.1,1035
39.15,950
39.2,922
39.25,910
39.3,864
39.35,874
39.4,872
39.45,841
39.5,852
39.55,806
39.6,787
39.65,771
39.7,769
39.75,771
39.8,765
39.85,771
39.9,783
39.95,770
40,787
40.05,770
40.1,808
40.15,814
40.2,822
40.25,832
40.3,823
40.35,827
40.4,850
40.45,852
40.5,863
40.55,874
40.6,903
40.65,905
40.7,924
40.75,899
40.8,924
40.85,898
40.9,928
40.95,917
41,915
41.05,954
41.1,994
41.15,1022
41.2,1096
41.25,1109
41.3,1135
41.35,1145
41.4,1244
41.45,1341
41.5,1472
41.55,1529
41.6,1652
41.65,1748
41.7,1653
41.75,1711
41.8,1574
41.85,1433
41.9,1499
41.95,1312
42,1155
42.05,1125
42.1,1067
42.15,1012
42.2,998
42.25,990
42.3,958
42.35,915
42.4,944
42.45,915
42.5,886
42.55,887
42.6,885
42.65,892
42.7,886
42.75,873
42.8,903
42.85,866
42.9,873
42.95,876
43,863
43.05,829
43.1,829
43.15,843
43.2,766
43.25,806
43.3,787
43.35,809
43.4,820
43.45,797
43.5,809
43.55,792
43.6,771
43.65,815
43.7,780
43.75,809
43.8,743
43.85,738
43.9,726
43.95,742
44,736
44.05,783
44.1,757
44.15,801
44.2,782
44.25,772
44.3,726
44.35,739
44.4,803
44.45,722
44.5,727
44.55,745
44.6,736
44.65,747
44.7,702
44.75,784
44.8,726
44.85,765
44.9,734
44.95,733
45,798
45.05,786
45.1,809
45.15,800
45.2,856
45.25,877
45.3,852
45.35,898
45.4,862
45.45,853
45.5,843
45.55,795
45.6,798
45.65,761
45.7,813
45.75,817
45.8,773
45.85,856
45.9,786
45.95,800
46,848
46.05,858
46.1,861
46.15,838
46.2,810
46.25,789
46.3,737
46.35,752
46.4,769
46.45,727
46.5,765
46.55,700
46.6,778
46.65,742
46.7,738
46.75,723
46.8,766
46.85,737
46.9,723
46.95,703
47,707
47.05,708
47.1,763
47.15,719
47.2,754
47.25,760
47.3,775
47.35,769
47.4,791
47.45,806
47.5,868
47.55,889
47.6,942
47.65,984
47.7,1043
47.75,1049
47.8,1053
47.85,1156
47.9,1128
47.95,1084
48,1080
48.05,1046
48.1,1001
48.15,932
48.2,926
48.25,896
48.3,864
48.35,860
48.4,840
48.45,785
48.5,853
48.55,800
48.6,767
48.65,780
48.7,749
48.75,767
48.8,743
48.85,764
48.9,747
48.95,753
49,765
49.05,705
49.1,738
49.15,740
49.2,729
49.25,697
49.3,746
49.35,782
49.4,742
49.45,779
49.5,807
49.55,756
49.6,770
49.65,787
49.7,772
49.75,749
49.8,793
49.85,845
49.9,848
49.95,815
50,775
50.05,792
50.1,775
50.15,741
50.2,726
50.25,723
50.3,752
50.35,735
50.4,756
50.45,739
50.5,735
50.55,746
50.6,751
50.65,735
50.7,774
50.75,735
50.8,753
50.85,784
50.9,770
50.95,748
51,777
51.05,751
51.1,740
51.15,726
51.2,743
51.25,743
51.3,733
51.35,746
51.4,731
51.45,759
51.5,766
51.55,755
51.6,739
51.65,742
51.7,755
51.75,726
51.8,709
51.85,717
51.9,684
51.95,665
52,838