#2-THETA,#INTENSITY
2,4950
2.05,7989
2.1,6175
2.15,6822
2.2,6673
2.25,5775
2.3,7470
2.35,4797
2.4,6469
2.45,5528
2.5,5215
2.55,5577
2.6,5039
2.65,5421
2.7,5134
2.75,4362
2.8,4628
2.85,4311
2.9,4010
2.95,4066
3,3807
3.05,3821
3.1,3783
3.15,3537
3.2,3680
3.25,3119
3.3,3403
3.35,3114
3.4,3029
3.45,3116
3.5,2645
3.55,3114
3.6,2488
3.65,2851
3.7,2954
3.75,2226
3.8,2608
3.85,2211
3.9,2574
3.95,2409
4,2093
4.05,2382
4.1,2025
4.15,2308
4.2,1948
4.25,2036
4.3,2028
4.35,1822
4.4,1956
4.45,1923
4.5,1774
4.55,1885
4.6,1766
4.65,1684
4.7,1606
4.75,1582
4.8,1571
4.85,1635
4.9,1583
4.95,1577
5,1590
5.05,1573
5.1,1535
5.15,1372
5.2,1485
5.25,1433
5.3,1430
5.35,1363
5.4,1323
5.45,1284
5.5,1277
5.55,1341
5.6,1282
5.65,1235
5.7,1180
5.75,1261
5.8,1229
5.85,1192
5.9,1175
5.95,1135
6,1143
6.05,1137
6.1,1135
6.15,1060
6.2,1009
6.25,1090
6.3,978
6.35,1008
6.4,929
6.45,933
6.5,961
6.55,957
6.6,954
6.65,1000
6.7,877
6.75,917
6.8,904
6.85,925
6.9,835
6.95,872
7,890
7.05,799
7.1,829
7.15,820
7.2,836
7.25,861
7.3,786
7.35,791
7.4,733
7.45,800
7.5,784
7.55,728
7.6,753
7.65,712
7.7,767
7.75,758
7.8,726
7.85,783
7.9,724
7.95,703
8,730
8.05,689
8.1,738
8.15,696
8.2,720
8.25,667
8.3,662
8.35,665
8.4,626
8.45,674
8.5,611
8.55,599
8.6,651
8.65,634
8.7,647
8.75,616
8.8,658
8.85,634
8.9,618
8.95,617
9,627
9.05,601
9.1,608
9.15,653
9.2,585
9.25,579
9.3,586
9.35,576
9.4,605
9.45,573
9.5,553
9.55,604
9.6,544
9.65,596
9.7,553
9.75,595
9.8,547
9.85,591
9.9,570
9.95,539
10,529
10.05,555
10.1,522
10.15,550
10.2,517
10.25,533
10.3,537
10.35,586
10.4,524
10.45,517
10.5,527
10.55,474
10.6,501
10.65,486
10.7,470
10.75,530
10.8,510
10.85,500
10.9,492
10.95,515
11,518
11.05,501
11.1,459
11.15,520
11.2,490
11.25,480
11.3,484
11.35,457
11.4,480
11.45,543
11.5,448
11.55,459
11.6,467
11.65,473
11.7,458
11.75,465
11.8,446
11.85,446
11.9,440
11.95,449
12,451
12.05,432
12.1,458
12.15,457
12.2,475
12.25,449
12.3,453
12.35,436
12.4,466
12.45,450
12.5,418
12.55,438
12.6,450
12.65,465
12.7,452
12.75,418
12.8,445
12.85,422
12.9,449
12.95,443
13,498
13.05,448
13.1,439
13.15,456
13.2,456
13.25,466
13.3,455
13.35,469
13.4,495
13.45,472
13.5,505
13.55,547
13.6,492
13.65,484
13.7,478
13.75,465
13.8,422
13.85,458
13.9,437
13.95,428
14,426
14.05,440
14.1,450
14.15,430
14.2,446
14.25,431
14.3,424
14.35,452
14.4,438
14.45,425
14.5,425
14.55,454
14.6,432
14.65,439
14.7,435
14.75,452
14.8,462
14.85,460
14.9,464
14.95,454
15,475
15.05,441
15.1,463
15.15,447
15.2,432
15.25,437
15.3,446
15.35,447
15.4,457
15.45,454
15.5,493
15.55,486
15.6,456
15.65,460
15.7,465
15.75,475
15.8,495
15.85,514
15.9,519
15.95,572
16,573
16.05,575
16.1,558
16.15,543
16.2,495
16.25,523
16.3,505
16.35,506
16.4,487
16.45,483
16.5,476
16.55,484
16.6,477
16.65,498
16.7,499
16.75,502
16.8,536
16.85,585
16.9,685
16.95,845
17,872
17.05,906
17.1,937
17.15,835
17.2,743
17.25,686
17.3,630
17.35,594
17.4,586
17.45,561
17.5,549
17.55,552
17.6,563
17.65,556
17.7,540
17.75,550
17.8,548
17.85,530
17.9,524
17.95,522
18,564
18.05,559
18.1,576
18.15,554
18.2,573
18.25,591
18.3,595
18.35,550
18.4,588
18.45,582
18.5,561
18.55,587
18.6,619
18.65,595
18.7,628
18.75,582
18.8,633
18.85,608
18.9,626
18.95,627
19,579
19.05,592
19.1,604
19.15,629
19.2,597
19.25,599
19.3,614
19.35,608
19.4,590
19.45,606
19.5,592
19.55,579
19.6,598
19.65,633
19.7,589
19.75,597
19.8,599
19.85,643
19.9,615
19.95,606
20,608
20.05,610
20.1,616
20.15,671
20.2,634
20.25,623
20.3,658
20.35,655
20.4,653
20.45,658
20.5,652
20.55,657
20.6,617
20.65,662
20.7,631
20.75,661
20.8,651
20.85,629
20.9,658
20.95,678
21,626
21.05,651
21.1,683
21.15,675
21.2,744
21.25,745
21.3,761
21.35,741
21.4,772
21.45,696
21.5,682
21.55,686
21.6,674
21.65,706
21.7,719
21.75,684
21.8,702
21.85,730
21.9,722
21.95,731
22,740
22.05,762
22.1,750
22.15,748
22.2,743
22.25,753
22.3,712
22.35,758
22.4,751
22.45,739
22.5,769
22.55,779
22.6,769
22.65,772
22.7,734
22.75,745
22.8,741
22.85,757
22.9,780
22.95,766
23,775
23.05,813
23.1,837
23.15,793
23.2,839
23.25,833
23.3,841
23.35,820
23.4,830
23.45,808
23.5,785
23.55,779
23.6,838
23.65,847
23.7,837
23.75,858
23.8,836
23.85,849
23.9,848
23.95,917
24,948
24.05,986
24.1,973
24.15,991
24.2,1014
24.25,1020
24.3,985
24.35,939
24.4,927
24.45,936
24.5,927
24.55,916
24.6,898
24.65,935
24.7,924
24.75,935
24.8,903
24.85,941
24.9,909
24.95,933
25,923
25.05,884
25.1,970
25.15,931
25.2,948
25.25,950
25.3,1021
25.35,1035
25.4,1188
25.45,1320
25.5,1485
25.55,1584
25.6,1636
25.65,1638
25.7,1523
25.75,1403
25.8,1238
25.85,1083
25.9,990
25.95,986
26,966
26.05,937
26.1,932
26.15,967
26.2,950
26.25,979
26.3,956
26.35,999
26.4,996
26.45,971
26.5,997
26.55,1046
26.6,1045
26.65,1047
26.7,1032
26.75,1039
26.8,1010
26.85,993
26.9,961
26.95,959
27,946
27.05,890
27.1,916
27.15,918
27.2,943
27.25,936
27.3,964
27.35,1033
27.4,1065
27.45,1114
27.5,1183
27.55,1254
27.6,1247
27.65,1198
27.7,1184
27.75,1090
27.8,1074
27.85,966
27.9,1003
27.95,1000
28,998
28.05,993
28.1,985
28.15,968
28.2,996
28.25,982
28.3,992
28.35,1021
28.4,1059
28.45,1047
28.5,1012
28.55,989
28.6,932
28.65,910
28.7,840
28.75,863
28.8,851
28.85,836
28.9,821
28.95,848
29,839
29.05,879
29.1,919
29.15,926
29.2,932
29.25,998
29.3,1041
29.35,1097
29.4,1221
29.45,1402
29.5,1566
29.55,1703
29.6,1803
29.65,1906
29.7,1793
29.75,1631
29.8,1493
29.85,1314
29.9,1188
29.95,1143
30,1034
30.05,979
30.1,920
30.15,891
30.2,882
30.25,859
30.3,811
30.35,789
30.4,797
30.45,795
30.5,777
30.55,786
30.6,796
30.65,837
30.7,864
30.75,885
30.8,898
30.85,989
30.9,1035
30.95,1085
31,1120
31.05,1138
31.1,1154
31.15,1069
31.2,963
31.25,892
31.3,870
31.35,831
31.4,819
31.45,784
31.5,763
31.55,769
31.6,762
31.65,757
31.7,786
31.75,799
31.8,777
31.85,818
31.9,823
31.95,872
32,919
32.05,1019
32.1,1129
32.15,1233
32.2,1452
32.25,1608
32.3,1861
32.35,1971
32.4,2058
32.45,1967
32.5,1937
32.55,1942
32.6,1855
32.65,1734
32.7,1600
32.75,1431
32.8,1289
32.85,1070
32.9,1003
32.95,923
33,908
33.05,938
33.1,897
33.15,874
33.2,869
33.25,800
33.3,750
33.35,729
33.4,675
33.45,693
33.5,679
33.55,669
33.6,675
33.65,644
33.7,676
33.75,695
33.8,690
33.85,696
33.9,727
33.95,712
34,729
34.05,695
34.1,706
34.15,697
34.2,686
34.25,698
34.3,744
34.35,782
34.4,861
34.45,941
34.5,1022
34.55,1073
34.6,1108
34.65,1075
34.7,1048
34.75,972
34.8,889
34.85,825
34.9,827
34.95,836
35,869
35.05,895
35.1,955
35.15,1002
35.2,1032
35.25,976
35.3,991
35.35,939
35.4,848
35.45,888
35.5,797
35.55,774
35.6,805
35.65,767
35.7,776
35.75,751
35.8,797
35.85,780
35.9,791
35.95,785
36,824
36.05,819
36.1,811
36.15,821
36.2,821
36.25,778
36.3,767
36.35,757
36.4,761
36.45,796
36.5,842
36.55,912
36.6,930
36.65,963
36.7,941
36.75,890
36.8,824
36.85,767
36.9,730
36.95,690
37,670
37.05,657
37.1,672
37.15,722
37.2,723
37.25,766
37.3,800
37.35,815
37.4,821
37.45,823
37.5,758
37.55,745
37.6,664
37.65,603
37.7,591
37.75,552
37.8,523
37.85,563
37.9,575
37.95,559
38,556
38.05,579
38.1,594
38.15,596
38.2,620
38.25,665
38.3,653
38.35,679
38.4,681
38.45,630
38.5,628
38.55,614
38.6,601
38.65,565
38.7,534
38.75,555
38.8,544
38.85,537
38.9,522
38.95,535
39,512
39.05,534
39.1,496
39.15,523
39.2,519
39.25,512
39.3,526
39.35,511
39.4,525
39.45,521
39.5,512
39.55,494
39.6,490
39.65,467
39.7,459
39.75,474
39.8,474
39.85,460
39.9,455
39.95,464
40,469
40.05,444
40.1,481
40.15,473
40.2,495
40.25,503
40.3,486
40.35,483
40.4,487
40.45,514
40.5,531
40.55,580
40.6,586
40.65,589
40.7,571
40.75,631
40.8,615
40.85,618
40.9,623
40.95,613
41,645
41.05,701
41.1,688
41.15,703
41.2,785
41.25,905
41.3,1140
41.35,1286
41.4,1511
41.45,1649
41.5,1709
41.55,1634
41.6,1528
41.65,1338
41.7,1183
41.75,1058
41.8,843
41.85,850
41.9,798
41.95,703
42,676
42.05,641
42.1,639
42.15,607
42.2,613
42.25,624
42.3,654
42.35,664
42.4,622
42.45,621
42.5,571
42.55,593
42.6,582
42.65,560
42.7,556
42.75,587
42.8,573
42.85,549
42.9,539
42.95,526
43,516
43.05,534
43.1,450
43.15,474
43.2,497
43.25,470
43.3,500
43.35,499
43.4,511
43.45,509
43.5,518
43.55,508
43.6,490
43.65,501
43.7,479
43.75,487
43.8,488
43.85,459
43.9,495
43.95,490
44,472
44.05,480
44.1,489
44.15,485
44.2,497
44.25,458
44.3,490
44.35,495
44.4,490
44.45,458
44.5,473
44.55,483
44.6,478
44.65,478
44.7,466
44.75,479
44.8,497
44.85,490
44.9,492
44.95,507
45,532
45.05,531
45.1,571
45.15,571
45.2,640
45.25,616
45.3,613
45.35,557
45.4,549
45.45,557
45.5,536
45.55,510
45.6,502
45.65,532
45.7,530
45.75,518
45.8,548
45.85,496
45.9,561
45.95,571
46,544
46.05,573
46.1,535
46.15,543
46.2,553
46.25,540
46.3,535
46.35,503
46.4,496
46.45,489
46.5,455
46.55,474
46.6,453
46.65,462
46.7,458
46.75,479
46.8,452
46.85,465
46.9,448
46.95,443
47,449
47.05,494
47.1,493
47.15,477
47.2,496
47.25,492
47.3,509
47.35,519
47.4,524
47.45,538
47.5,583
47.55,572
47.6,611
47.65,630
47.7,624
47.75,592
47.8,628
47.85,626
47.9,614
47.95,593
48,584
48.05,516
48.1,548
48.15,529
48.2,520
48.25,506
48.3,523
48.35,518
48.4,549
48.45,531
48.5,531
48.55,539
48.6,527
48.65,498
48.7,500
48.75,512
48.8,504
48.85,514
48.9,507
48.95,500
49,494
49.05,529
49.1,490
49.15,518
49.2,521
49.25,577
49.3,566
49.35,576
49.4,611
49.45,603
49.5,617
49.55,577
49.6,589
49.65,567
49.7,582
49.75,561
49.8,597
49.85,604
49.9,622
49.95,561
50,591
50.05,576
50.1,577
50.15,533
50.2,544
50.25,547
50.3,592
50.35,569
50.4,648
50.45,656
50.5,715
50.55,713
50.6,685
50.65,712
50.7,660
50.75,649
50.8,580
50.85,559
50.9,549
50.95,532
51,518
51.05,515
51.1,485
51.15,473
51.2,486
51.25,478
51.3,510
51.35,480
51.4,498
51.45,510
51.5,466
51.55,478
51.6,490
51.65,486
51.7,470
51.75,492
51.8,489
51.85,525
51.9,484
51.95,459
52,485